Dataset wide_80:3(ito)
Dwell Time (s)	0.100000
Number of sweeps	10
Kinetic Energy(eV)	Binding Energy(eV)	Intensity(cps)	Transmission Value
286.690000	1200.000000	8554.000000	3.522864
287.190000	1199.500000	8697.000000	3.523253
287.690000	1199.000000	8683.000000	3.523643
288.190000	1198.500000	8688.000000	3.524033
288.690000	1198.000000	8746.000000	3.524423
289.190000	1197.500000	8557.000000	3.524812
289.690000	1197.000000	8787.000000	3.525202
290.190000	1196.500000	8764.000000	3.525592
290.690000	1196.000000	8788.000000	3.525982
291.190000	1195.500000	8841.000000	3.526372
291.690000	1195.000000	8808.000000	3.526761
292.190000	1194.500000	8820.000000	3.527151
292.690000	1194.000000	8794.000000	3.527541
293.190000	1193.500000	8955.000000	3.527931
293.690000	1193.000000	8858.000000	3.528321
294.190000	1192.500000	8759.000000	3.528710
294.690000	1192.000000	8926.000000	3.529100
295.190000	1191.500000	8935.000000	3.529490
295.690000	1191.000000	8754.000000	3.529880
296.190000	1190.500000	8664.000000	3.530269
296.690000	1190.000000	8832.000000	3.530659
297.190000	1189.500000	8724.000000	3.531049
297.690000	1189.000000	8702.000000	3.531439
298.190000	1188.500000	8921.000000	3.531829
298.690000	1188.000000	8860.000000	3.532218
299.190000	1187.500000	8839.000000	3.532608
299.690000	1187.000000	8750.000000	3.532998
300.190000	1186.500000	8637.000000	3.533388
300.690000	1186.000000	8757.000000	3.533777
301.190000	1185.500000	8732.000000	3.534167
301.690000	1185.000000	8800.000000	3.534557
302.190000	1184.500000	8679.000000	3.534947
302.690000	1184.000000	8730.000000	3.535337
303.190000	1183.500000	8693.000000	3.535726
303.690000	1183.000000	8745.000000	3.536116
304.190000	1182.500000	8530.000000	3.536506
304.690000	1182.000000	8663.000000	3.536896
305.190000	1181.500000	8686.000000	3.537286
305.690000	1181.000000	8571.000000	3.537675
306.190000	1180.500000	8504.000000	3.538065
306.690000	1180.000000	8556.000000	3.538455
307.190000	1179.500000	8645.000000	3.538845
307.690000	1179.000000	8533.000000	3.539234
308.190000	1178.500000	8620.000000	3.539624
308.690000	1178.000000	8543.000000	3.540014
309.190000	1177.500000	8625.000000	3.540404
309.690000	1177.000000	8648.000000	3.540794
310.190000	1176.500000	8536.000000	3.541183
310.690000	1176.000000	8618.000000	3.541573
311.190000	1175.500000	8614.000000	3.541963
311.690000	1175.000000	8643.000000	3.542353
312.190000	1174.500000	8645.000000	3.542742
312.690000	1174.000000	8666.000000	3.543132
313.190000	1173.500000	8701.000000	3.543522
313.690000	1173.000000	8728.000000	3.543912
314.190000	1172.500000	8800.000000	3.544302
314.690000	1172.000000	8720.000000	3.544691
315.190000	1171.500000	8626.000000	3.545081
315.690000	1171.000000	8669.000000	3.545471
316.190000	1170.500000	8849.000000	3.545861
316.690000	1170.000000	8867.000000	3.546250
317.190000	1169.500000	8758.000000	3.546640
317.690000	1169.000000	8815.000000	3.547030
318.190000	1168.500000	8726.000000	3.547420
318.690000	1168.000000	8894.000000	3.547810
319.190000	1167.500000	8828.000000	3.548199
319.690000	1167.000000	8849.000000	3.548589
320.190000	1166.500000	8835.000000	3.548979
320.690000	1166.000000	8866.000000	3.549369
321.190000	1165.500000	8809.000000	3.549759
321.690000	1165.000000	8852.000000	3.550148
322.190000	1164.500000	9016.000000	3.550538
322.690000	1164.000000	8983.000000	3.550928
323.190000	1163.500000	8922.000000	3.551318
323.690000	1163.000000	9010.000000	3.551707
324.190000	1162.500000	9151.000000	3.552097
324.690000	1162.000000	9015.000000	3.552487
325.190000	1161.500000	9116.000000	3.552877
325.690000	1161.000000	8987.000000	3.553267
326.190000	1160.500000	8963.000000	3.553656
326.690000	1160.000000	9093.000000	3.554046
327.190000	1159.500000	9168.000000	3.554436
327.690000	1159.000000	9176.000000	3.554826
328.190000	1158.500000	9241.000000	3.555215
328.690000	1158.000000	9383.000000	3.555983
329.190000	1157.500000	9272.000000	3.556794
329.690000	1157.000000	9202.000000	3.557606
330.190000	1156.500000	9179.000000	3.558418
330.690000	1156.000000	9244.000000	3.559230
331.190000	1155.500000	9169.000000	3.560042
331.690000	1155.000000	9311.000000	3.560853
332.190000	1154.500000	9332.000000	3.561665
332.690000	1154.000000	9133.000000	3.562477
333.190000	1153.500000	9162.000000	3.563289
333.690000	1153.000000	9225.000000	3.564101
334.190000	1152.500000	9272.000000	3.564913
334.690000	1152.000000	9195.000000	3.565724
335.190000	1151.500000	9263.000000	3.566536
335.690000	1151.000000	9210.000000	3.567348
336.190000	1150.500000	9303.000000	3.568160
336.690000	1150.000000	9260.000000	3.568972
337.190000	1149.500000	9246.000000	3.569783
337.690000	1149.000000	9217.000000	3.570595
338.190000	1148.500000	9178.000000	3.571407
338.690000	1148.000000	9103.000000	3.572219
339.190000	1147.500000	9184.000000	3.573031
339.690000	1147.000000	9092.000000	3.573843
340.190000	1146.500000	9280.000000	3.574654
340.690000	1146.000000	9127.000000	3.575466
341.190000	1145.500000	9122.000000	3.576278
341.690000	1145.000000	9058.000000	3.577090
342.190000	1144.500000	9078.000000	3.577902
342.690000	1144.000000	8989.000000	3.578713
343.190000	1143.500000	9073.000000	3.579525
343.690000	1143.000000	9038.000000	3.580337
344.190000	1142.500000	8930.000000	3.581149
344.690000	1142.000000	8840.000000	3.581961
345.190000	1141.500000	8839.000000	3.582773
345.690000	1141.000000	8734.000000	3.583584
346.190000	1140.500000	8727.000000	3.584396
346.690000	1140.000000	8887.000000	3.585208
347.190000	1139.500000	8860.000000	3.586020
347.690000	1139.000000	8477.000000	3.586832
348.190000	1138.500000	8484.000000	3.587643
348.690000	1138.000000	8533.000000	3.588455
349.190000	1137.500000	8476.000000	3.589267
349.690000	1137.000000	8402.000000	3.590079
350.190000	1136.500000	8436.000000	3.590891
350.690000	1136.000000	8454.000000	3.591703
351.190000	1135.500000	8503.000000	3.592514
351.690000	1135.000000	8322.000000	3.593326
352.190000	1134.500000	8250.000000	3.594138
352.690000	1134.000000	8262.000000	3.594950
353.190000	1133.500000	8201.000000	3.595762
353.690000	1133.000000	8130.000000	3.596573
354.190000	1132.500000	8159.000000	3.597385
354.690000	1132.000000	8191.000000	3.598197
355.190000	1131.500000	8196.000000	3.599009
355.690000	1131.000000	8083.000000	3.599821
356.190000	1130.500000	8101.000000	3.600633
356.690000	1130.000000	8049.000000	3.601444
357.190000	1129.500000	8122.000000	3.602256
357.690000	1129.000000	8144.000000	3.603068
358.190000	1128.500000	8070.000000	3.603880
358.690000	1128.000000	7978.000000	3.604692
359.190000	1127.500000	8084.000000	3.605503
359.690000	1127.000000	8068.000000	3.606315
360.190000	1126.500000	7984.000000	3.607127
360.690000	1126.000000	8077.000000	3.607939
361.190000	1125.500000	8118.000000	3.608751
361.690000	1125.000000	8123.000000	3.609563
362.190000	1124.500000	8090.000000	3.610374
362.690000	1124.000000	8047.000000	3.611186
363.190000	1123.500000	8085.000000	3.611998
363.690000	1123.000000	8049.000000	3.612810
364.190000	1122.500000	8239.000000	3.613622
364.690000	1122.000000	8233.000000	3.614433
365.190000	1121.500000	8129.000000	3.615245
365.690000	1121.000000	8156.000000	3.616057
366.190000	1120.500000	8235.000000	3.616869
366.690000	1120.000000	8153.000000	3.617681
367.190000	1119.500000	8148.000000	3.618493
367.690000	1119.000000	8195.000000	3.619304
368.190000	1118.500000	8221.000000	3.620116
368.690000	1118.000000	8140.000000	3.620928
369.190000	1117.500000	8356.000000	3.621740
369.690000	1117.000000	8187.000000	3.622552
370.190000	1116.500000	8386.000000	3.623363
370.690000	1116.000000	8397.000000	3.624175
371.190000	1115.500000	8377.000000	3.624987
371.690000	1115.000000	8538.000000	3.625799
372.190000	1114.500000	8200.000000	3.626611
372.690000	1114.000000	8244.000000	3.627423
373.190000	1113.500000	8378.000000	3.628234
373.690000	1113.000000	8190.000000	3.629046
374.190000	1112.500000	8295.000000	3.629858
374.690000	1112.000000	8380.000000	3.630670
375.190000	1111.500000	8409.000000	3.631482
375.690000	1111.000000	8523.000000	3.632293
376.190000	1110.500000	8424.000000	3.633105
376.690000	1110.000000	8435.000000	3.633917
377.190000	1109.500000	8399.000000	3.634729
377.690000	1109.000000	8436.000000	3.635541
378.190000	1108.500000	8555.000000	3.636353
378.690000	1108.000000	8463.000000	3.637164
379.190000	1107.500000	8490.000000	3.637976
379.690000	1107.000000	8573.000000	3.638788
380.190000	1106.500000	8362.000000	3.639600
380.690000	1106.000000	8617.000000	3.640412
381.190000	1105.500000	8613.000000	3.641223
381.690000	1105.000000	8513.000000	3.642035
382.190000	1104.500000	8592.000000	3.642847
382.690000	1104.000000	8676.000000	3.643659
383.190000	1103.500000	8651.000000	3.644471
383.690000	1103.000000	8632.000000	3.645283
384.190000	1102.500000	8522.000000	3.646094
384.690000	1102.000000	8628.000000	3.646906
385.190000	1101.500000	8556.000000	3.647718
385.690000	1101.000000	8566.000000	3.648530
386.190000	1100.500000	8555.000000	3.649342
386.690000	1100.000000	8745.000000	3.650153
387.190000	1099.500000	8641.000000	3.650965
387.690000	1099.000000	8650.000000	3.651777
388.190000	1098.500000	8610.000000	3.652589
388.690000	1098.000000	8565.000000	3.653401
389.190000	1097.500000	8517.000000	3.654213
389.690000	1097.000000	8549.000000	3.655024
390.190000	1096.500000	8435.000000	3.655836
390.690000	1096.000000	8494.000000	3.656648
391.190000	1095.500000	8604.000000	3.657460
391.690000	1095.000000	8680.000000	3.658272
392.190000	1094.500000	8665.000000	3.659083
392.690000	1094.000000	8703.000000	3.659895
393.190000	1093.500000	8887.000000	3.660707
393.690000	1093.000000	8975.000000	3.661519
394.190000	1092.500000	8929.000000	3.662331
394.690000	1092.000000	9067.000000	3.663143
395.190000	1091.500000	9292.000000	3.663954
395.690000	1091.000000	9633.000000	3.664766
396.190000	1090.500000	9774.000000	3.665578
396.690000	1090.000000	9986.000000	3.666390
397.190000	1089.500000	10261.000000	3.667202
397.690000	1089.000000	10862.000000	3.668014
398.190000	1088.500000	11522.000000	3.668825
398.690000	1088.000000	12075.000000	3.669637
399.190000	1087.500000	12332.000000	3.670449
399.690000	1087.000000	12528.000000	3.671261
400.190000	1086.500000	12690.000000	3.672073
400.690000	1086.000000	12752.000000	3.672884
401.190000	1085.500000	12396.000000	3.673696
401.690000	1085.000000	12048.000000	3.674508
402.190000	1084.500000	11625.000000	3.675320
402.690000	1084.000000	11057.000000	3.676132
403.190000	1083.500000	10474.000000	3.676944
403.690000	1083.000000	10207.000000	3.677755
404.190000	1082.500000	10069.000000	3.678567
404.690000	1082.000000	9785.000000	3.679379
405.190000	1081.500000	9763.000000	3.680191
405.690000	1081.000000	9989.000000	3.681003
406.190000	1080.500000	10232.000000	3.681814
406.690000	1080.000000	10283.000000	3.682626
407.190000	1079.500000	10232.000000	3.683438
407.690000	1079.000000	9965.000000	3.684250
408.190000	1078.500000	9636.000000	3.685062
408.690000	1078.000000	9295.000000	3.685874
409.190000	1077.500000	8726.000000	3.686685
409.690000	1077.000000	8283.000000	3.687497
410.190000	1076.500000	7788.000000	3.688309
410.690000	1076.000000	7543.000000	3.689121
411.190000	1075.500000	7347.000000	3.689933
411.690000	1075.000000	6992.000000	3.690744
412.190000	1074.500000	6904.000000	3.691556
412.690000	1074.000000	6886.000000	3.692368
413.190000	1073.500000	6725.000000	3.693180
413.690000	1073.000000	6722.000000	3.693992
414.190000	1072.500000	6705.000000	3.694804
414.690000	1072.000000	6748.000000	3.695615
415.190000	1071.500000	6742.000000	3.696427
415.690000	1071.000000	6649.000000	3.697239
416.190000	1070.500000	6727.000000	3.698051
416.690000	1070.000000	6748.000000	3.698863
417.190000	1069.500000	6782.000000	3.699674
417.690000	1069.000000	6877.000000	3.700486
418.190000	1068.500000	6788.000000	3.701298
418.690000	1068.000000	6861.000000	3.702110
419.190000	1067.500000	6883.000000	3.702922
419.690000	1067.000000	6936.000000	3.703734
420.190000	1066.500000	6898.000000	3.704545
420.690000	1066.000000	6915.000000	3.705357
421.190000	1065.500000	6882.000000	3.706169
421.690000	1065.000000	6860.000000	3.706981
422.190000	1064.500000	6930.000000	3.707793
422.690000	1064.000000	6907.000000	3.708604
423.190000	1063.500000	7036.000000	3.709416
423.690000	1063.000000	7032.000000	3.710228
424.190000	1062.500000	7190.000000	3.711040
424.690000	1062.000000	7142.000000	3.711852
425.190000	1061.500000	7191.000000	3.712664
425.690000	1061.000000	7246.000000	3.713475
426.190000	1060.500000	7177.000000	3.714287
426.690000	1060.000000	7218.000000	3.715099
427.190000	1059.500000	7131.000000	3.715911
427.690000	1059.000000	7028.000000	3.716723
428.190000	1058.500000	7063.000000	3.717534
428.690000	1058.000000	6880.000000	3.718346
429.190000	1057.500000	6795.000000	3.719158
429.690000	1057.000000	6696.000000	3.719970
430.190000	1056.500000	6575.000000	3.720782
430.690000	1056.000000	6702.000000	3.721594
431.190000	1055.500000	6659.000000	3.722405
431.690000	1055.000000	6816.000000	3.723217
432.190000	1054.500000	6753.000000	3.724029
432.690000	1054.000000	6795.000000	3.724841
433.190000	1053.500000	6855.000000	3.725653
433.690000	1053.000000	6717.000000	3.726464
434.190000	1052.500000	6539.000000	3.727276
434.690000	1052.000000	6606.000000	3.728088
435.190000	1051.500000	6600.000000	3.728900
435.690000	1051.000000	6434.000000	3.729712
436.190000	1050.500000	6552.000000	3.730524
436.690000	1050.000000	6459.000000	3.731335
437.190000	1049.500000	6354.000000	3.732147
437.690000	1049.000000	6432.000000	3.732959
438.190000	1048.500000	6410.000000	3.733771
438.690000	1048.000000	6301.000000	3.734583
439.190000	1047.500000	6463.000000	3.735394
439.690000	1047.000000	6402.000000	3.736206
440.190000	1046.500000	6338.000000	3.737018
440.690000	1046.000000	6252.000000	3.737830
441.190000	1045.500000	6324.000000	3.738642
441.690000	1045.000000	6334.000000	3.739454
442.190000	1044.500000	6350.000000	3.740265
442.690000	1044.000000	6430.000000	3.741077
443.190000	1043.500000	6385.000000	3.741889
443.690000	1043.000000	6296.000000	3.742701
444.190000	1042.500000	6383.000000	3.743513
444.690000	1042.000000	6415.000000	3.744324
445.190000	1041.500000	6417.000000	3.745136
445.690000	1041.000000	6455.000000	3.745948
446.190000	1040.500000	6461.000000	3.746760
446.690000	1040.000000	6410.000000	3.747572
447.190000	1039.500000	6416.000000	3.748384
447.690000	1039.000000	6479.000000	3.749195
448.190000	1038.500000	6453.000000	3.750007
448.690000	1038.000000	6450.000000	3.750819
449.190000	1037.500000	6439.000000	3.751631
449.690000	1037.000000	6398.000000	3.752443
450.190000	1036.500000	6415.000000	3.753254
450.690000	1036.000000	6445.000000	3.754066
451.190000	1035.500000	6515.000000	3.754878
451.690000	1035.000000	6481.000000	3.755690
452.190000	1034.500000	6565.000000	3.756502
452.690000	1034.000000	6501.000000	3.757314
453.190000	1033.500000	6506.000000	3.758125
453.690000	1033.000000	6521.000000	3.758937
454.190000	1032.500000	6544.000000	3.759749
454.690000	1032.000000	6519.000000	3.760561
455.190000	1031.500000	6527.000000	3.761373
455.690000	1031.000000	6541.000000	3.762184
456.190000	1030.500000	6644.000000	3.762954
456.690000	1030.000000	6699.000000	3.763635
457.190000	1029.500000	6586.000000	3.764316
457.690000	1029.000000	6688.000000	3.764997
458.190000	1028.500000	6727.000000	3.765678
458.690000	1028.000000	6641.000000	3.766359
459.190000	1027.500000	6615.000000	3.767039
459.690000	1027.000000	6635.000000	3.767720
460.190000	1026.500000	6671.000000	3.768401
460.690000	1026.000000	6694.000000	3.769082
461.190000	1025.500000	6455.000000	3.769763
461.690000	1025.000000	6579.000000	3.770444
462.190000	1024.500000	6622.000000	3.771125
462.690000	1024.000000	6553.000000	3.771805
463.190000	1023.500000	6757.000000	3.772486
463.690000	1023.000000	6695.000000	3.773167
464.190000	1022.500000	6751.000000	3.773848
464.690000	1022.000000	6743.000000	3.774529
465.190000	1021.500000	6748.000000	3.775210
465.690000	1021.000000	6814.000000	3.775890
466.190000	1020.500000	6719.000000	3.776571
466.690000	1020.000000	6827.000000	3.777252
467.190000	1019.500000	6808.000000	3.777933
467.690000	1019.000000	6743.000000	3.778614
468.190000	1018.500000	6629.000000	3.779295
468.690000	1018.000000	6843.000000	3.779976
469.190000	1017.500000	6802.000000	3.780656
469.690000	1017.000000	6860.000000	3.781337
470.190000	1016.500000	6942.000000	3.782018
470.690000	1016.000000	6963.000000	3.782699
471.190000	1015.500000	6852.000000	3.783380
471.690000	1015.000000	6858.000000	3.784061
472.190000	1014.500000	6984.000000	3.784741
472.690000	1014.000000	6910.000000	3.785422
473.190000	1013.500000	6922.000000	3.786103
473.690000	1013.000000	6920.000000	3.786784
474.190000	1012.500000	7019.000000	3.787465
474.690000	1012.000000	7081.000000	3.788146
475.190000	1011.500000	6987.000000	3.788827
475.690000	1011.000000	7058.000000	3.789507
476.190000	1010.500000	7029.000000	3.790188
476.690000	1010.000000	6983.000000	3.790869
477.190000	1009.500000	6965.000000	3.791550
477.690000	1009.000000	7035.000000	3.792231
478.190000	1008.500000	7105.000000	3.792912
478.690000	1008.000000	6985.000000	3.793593
479.190000	1007.500000	7059.000000	3.794273
479.690000	1007.000000	7138.000000	3.794954
480.190000	1006.500000	7001.000000	3.795635
480.690000	1006.000000	6981.000000	3.796316
481.190000	1005.500000	7017.000000	3.796997
481.690000	1005.000000	7087.000000	3.797678
482.190000	1004.500000	7113.000000	3.798358
482.690000	1004.000000	7106.000000	3.799039
483.190000	1003.500000	7145.000000	3.799720
483.690000	1003.000000	7151.000000	3.800401
484.190000	1002.500000	7002.000000	3.801082
484.690000	1002.000000	7147.000000	3.801763
485.190000	1001.500000	7069.000000	3.802444
485.690000	1001.000000	7060.000000	3.803124
486.190000	1000.500000	7164.000000	3.803805
486.690000	1000.000000	7268.000000	3.804486
487.190000	999.500000	7290.000000	3.805167
487.690000	999.000000	7276.000000	3.805848
488.190000	998.500000	7427.000000	3.806529
488.690000	998.000000	7456.000000	3.807209
489.190000	997.500000	7461.000000	3.807890
489.690000	997.000000	7468.000000	3.808571
490.190000	996.500000	7536.000000	3.809252
490.690000	996.000000	7573.000000	3.809933
491.190000	995.500000	7593.000000	3.810614
491.690000	995.000000	7664.000000	3.811295
492.190000	994.500000	7692.000000	3.811975
492.690000	994.000000	7585.000000	3.812656
493.190000	993.500000	7549.000000	3.813337
493.690000	993.000000	7578.000000	3.814018
494.190000	992.500000	7527.000000	3.814699
494.690000	992.000000	7351.000000	3.815380
495.190000	991.500000	7325.000000	3.816060
495.690000	991.000000	7217.000000	3.816741
496.190000	990.500000	7188.000000	3.817422
496.690000	990.000000	7315.000000	3.818103
497.190000	989.500000	7228.000000	3.818784
497.690000	989.000000	7389.000000	3.819465
498.190000	988.500000	7310.000000	3.820146
498.690000	988.000000	7254.000000	3.820826
499.190000	987.500000	7322.000000	3.821507
499.690000	987.000000	7302.000000	3.822188
500.190000	986.500000	7281.000000	3.822869
500.690000	986.000000	7208.000000	3.823550
501.190000	985.500000	7200.000000	3.824231
501.690000	985.000000	7184.000000	3.824912
502.190000	984.500000	7304.000000	3.825592
502.690000	984.000000	7321.000000	3.826273
503.190000	983.500000	7235.000000	3.826954
503.690000	983.000000	7424.000000	3.827635
504.190000	982.500000	7455.000000	3.828316
504.690000	982.000000	7311.000000	3.828997
505.190000	981.500000	7326.000000	3.829677
505.690000	981.000000	7410.000000	3.830358
506.190000	980.500000	7414.000000	3.831039
506.690000	980.000000	7536.000000	3.831720
507.190000	979.500000	7672.000000	3.832401
507.690000	979.000000	7643.000000	3.833082
508.190000	978.500000	7712.000000	3.833763
508.690000	978.000000	7913.000000	3.834443
509.190000	977.500000	8057.000000	3.835124
509.690000	977.000000	8265.000000	3.835805
510.190000	976.500000	8505.000000	3.836486
510.690000	976.000000	8871.000000	3.837167
511.190000	975.500000	9086.000000	3.837848
511.690000	975.000000	9299.000000	3.838528
512.190000	974.500000	9132.000000	3.839209
