Dataset wide_40:4(ito)
Dwell Time (s)	0.100000
Number of sweeps	20
Kinetic Energy(eV)	Binding Energy(eV)	Intensity(cps)	Transmission Value
286.690000	1200.000000	3069.000000	1.640891
287.190000	1199.500000	3158.500000	1.640302
287.690000	1199.000000	3186.000000	1.639713
288.190000	1198.500000	3137.500000	1.639124
288.690000	1198.000000	3180.000000	1.638535
289.190000	1197.500000	3208.500000	1.637946
289.690000	1197.000000	3235.000000	1.637357
290.190000	1196.500000	3277.000000	1.636768
290.690000	1196.000000	3218.500000	1.636179
291.190000	1195.500000	3289.000000	1.635590
291.690000	1195.000000	3311.500000	1.635001
292.190000	1194.500000	3304.500000	1.634412
292.690000	1194.000000	3307.000000	1.633822
293.190000	1193.500000	3308.000000	1.633233
293.690000	1193.000000	3472.500000	1.632644
294.190000	1192.500000	3399.000000	1.632055
294.690000	1192.000000	3363.500000	1.631466
295.190000	1191.500000	3451.500000	1.630877
295.690000	1191.000000	3397.000000	1.630288
296.190000	1190.500000	3387.000000	1.629699
296.690000	1190.000000	3289.000000	1.629110
297.190000	1189.500000	3297.500000	1.628521
297.690000	1189.000000	3299.500000	1.627932
298.190000	1188.500000	3290.500000	1.627343
298.690000	1188.000000	3256.000000	1.626754
299.190000	1187.500000	3259.500000	1.626165
299.690000	1187.000000	3271.500000	1.625576
300.190000	1186.500000	3322.500000	1.624987
300.690000	1186.000000	3243.000000	1.624398
301.190000	1185.500000	3223.500000	1.623809
301.690000	1185.000000	3296.000000	1.623219
302.190000	1184.500000	3267.500000	1.622630
302.690000	1184.000000	3282.500000	1.622041
303.190000	1183.500000	3210.000000	1.621452
303.690000	1183.000000	3230.500000	1.620863
304.190000	1182.500000	3181.000000	1.620274
304.690000	1182.000000	3253.500000	1.619685
305.190000	1181.500000	3299.500000	1.619096
305.690000	1181.000000	3258.000000	1.618507
306.190000	1180.500000	3207.000000	1.617918
306.690000	1180.000000	3198.000000	1.617329
307.190000	1179.500000	3235.500000	1.616740
307.690000	1179.000000	3185.000000	1.616151
308.190000	1178.500000	3243.500000	1.615562
308.690000	1178.000000	3260.500000	1.614973
309.190000	1177.500000	3222.500000	1.614384
309.690000	1177.000000	3261.500000	1.613795
310.190000	1176.500000	3260.500000	1.613206
310.690000	1176.000000	3272.500000	1.612616
311.190000	1175.500000	3288.000000	1.612027
311.690000	1175.000000	3269.000000	1.611438
312.190000	1174.500000	3295.500000	1.610849
312.690000	1174.000000	3327.000000	1.610260
313.190000	1173.500000	3360.500000	1.609671
313.690000	1173.000000	3385.500000	1.609082
314.190000	1172.500000	3370.500000	1.608493
314.690000	1172.000000	3325.000000	1.607904
315.190000	1171.500000	3349.000000	1.607315
315.690000	1171.000000	3378.500000	1.606726
316.190000	1170.500000	3327.000000	1.606137
316.690000	1170.000000	3382.500000	1.605548
317.190000	1169.500000	3384.500000	1.604959
317.690000	1169.000000	3412.000000	1.604370
318.190000	1168.500000	3426.000000	1.603781
318.690000	1168.000000	3362.500000	1.603192
319.190000	1167.500000	3394.000000	1.602603
319.690000	1167.000000	3365.000000	1.602013
320.190000	1166.500000	3454.500000	1.601424
320.690000	1166.000000	3456.500000	1.600835
321.190000	1165.500000	3436.000000	1.600246
321.690000	1165.000000	3427.500000	1.599657
322.190000	1164.500000	3460.000000	1.599068
322.690000	1164.000000	3543.500000	1.598479
323.190000	1163.500000	3488.000000	1.597890
323.690000	1163.000000	3508.500000	1.597301
324.190000	1162.500000	3493.000000	1.596712
324.690000	1162.000000	3536.500000	1.596123
325.190000	1161.500000	3585.500000	1.595534
325.690000	1161.000000	3604.000000	1.594945
326.190000	1160.500000	3521.500000	1.594356
326.690000	1160.000000	3587.000000	1.593767
327.190000	1159.500000	3578.500000	1.593178
327.690000	1159.000000	3530.500000	1.592589
328.190000	1158.500000	3567.500000	1.592000
328.690000	1158.000000	3591.500000	1.591888
329.190000	1157.500000	3543.000000	1.591833
329.690000	1157.000000	3611.000000	1.591778
330.190000	1156.500000	3572.000000	1.591724
330.690000	1156.000000	3564.000000	1.591669
331.190000	1155.500000	3636.500000	1.591614
331.690000	1155.000000	3617.000000	1.591559
332.190000	1154.500000	3610.000000	1.591504
332.690000	1154.000000	3584.500000	1.591449
333.190000	1153.500000	3664.500000	1.591394
333.690000	1153.000000	3616.000000	1.591340
334.190000	1152.500000	3663.000000	1.591285
334.690000	1152.000000	3693.500000	1.591230
335.190000	1151.500000	3669.000000	1.591175
335.690000	1151.000000	3621.000000	1.591120
336.190000	1150.500000	3657.500000	1.591065
336.690000	1150.000000	3663.500000	1.591011
337.190000	1149.500000	3647.000000	1.590956
337.690000	1149.000000	3641.000000	1.590901
338.190000	1148.500000	3766.500000	1.590846
338.690000	1148.000000	3691.000000	1.590791
339.190000	1147.500000	3659.000000	1.590736
339.690000	1147.000000	3683.000000	1.590682
340.190000	1146.500000	3727.500000	1.590627
340.690000	1146.000000	3662.500000	1.590572
341.190000	1145.500000	3705.500000	1.590517
341.690000	1145.000000	3694.500000	1.590462
342.190000	1144.500000	3788.000000	1.590407
342.690000	1144.000000	3680.000000	1.590352
343.190000	1143.500000	3661.500000	1.590298
343.690000	1143.000000	3654.000000	1.590243
344.190000	1142.500000	3609.500000	1.590188
344.690000	1142.000000	3589.000000	1.590133
345.190000	1141.500000	3547.000000	1.590078
345.690000	1141.000000	3512.500000	1.590023
346.190000	1140.500000	3564.500000	1.589969
346.690000	1140.000000	3518.000000	1.589914
347.190000	1139.500000	3535.000000	1.589859
347.690000	1139.000000	3530.000000	1.589804
348.190000	1138.500000	3510.000000	1.589749
348.690000	1138.000000	3442.000000	1.589694
349.190000	1137.500000	3456.500000	1.589640
349.690000	1137.000000	3483.000000	1.589585
350.190000	1136.500000	3422.000000	1.589530
350.690000	1136.000000	3399.500000	1.589475
351.190000	1135.500000	3457.500000	1.589420
351.690000	1135.000000	3445.500000	1.589365
352.190000	1134.500000	3360.000000	1.589310
352.690000	1134.000000	3420.000000	1.589256
353.190000	1133.500000	3383.500000	1.589201
353.690000	1133.000000	3364.500000	1.589146
354.190000	1132.500000	3315.000000	1.589091
354.690000	1132.000000	3354.500000	1.589036
355.190000	1131.500000	3338.000000	1.588981
355.690000	1131.000000	3406.500000	1.588927
356.190000	1130.500000	3394.000000	1.588872
356.690000	1130.000000	3297.000000	1.588817
357.190000	1129.500000	3342.500000	1.588762
357.690000	1129.000000	3363.500000	1.588707
358.190000	1128.500000	3366.000000	1.588652
358.690000	1128.000000	3385.000000	1.588598
359.190000	1127.500000	3451.500000	1.588543
359.690000	1127.000000	3367.000000	1.588488
360.190000	1126.500000	3364.500000	1.588433
360.690000	1126.000000	3391.500000	1.588378
361.190000	1125.500000	3362.500000	1.588323
361.690000	1125.000000	3371.500000	1.588268
362.190000	1124.500000	3406.000000	1.588214
362.690000	1124.000000	3380.000000	1.588159
363.190000	1123.500000	3455.500000	1.588104
363.690000	1123.000000	3437.000000	1.588049
364.190000	1122.500000	3445.000000	1.587994
364.690000	1122.000000	3444.000000	1.587939
365.190000	1121.500000	3372.500000	1.587885
365.690000	1121.000000	3480.000000	1.587830
366.190000	1120.500000	3483.000000	1.587775
366.690000	1120.000000	3457.500000	1.587720
367.190000	1119.500000	3433.000000	1.587665
367.690000	1119.000000	3462.000000	1.587610
368.190000	1118.500000	3503.000000	1.587556
368.690000	1118.000000	3558.500000	1.587501
369.190000	1117.500000	3483.000000	1.587446
369.690000	1117.000000	3530.000000	1.587391
370.190000	1116.500000	3554.000000	1.587336
370.690000	1116.000000	3597.000000	1.587281
371.190000	1115.500000	3492.500000	1.587226
371.690000	1115.000000	3526.000000	1.587172
372.190000	1114.500000	3533.500000	1.587117
372.690000	1114.000000	3580.500000	1.587062
373.190000	1113.500000	3601.500000	1.587007
373.690000	1113.000000	3571.000000	1.586952
374.190000	1112.500000	3555.000000	1.586897
374.690000	1112.000000	3628.000000	1.586843
375.190000	1111.500000	3620.000000	1.586788
375.690000	1111.000000	3650.500000	1.586733
376.190000	1110.500000	3664.000000	1.586678
376.690000	1110.000000	3705.000000	1.586623
377.190000	1109.500000	3675.000000	1.586568
377.690000	1109.000000	3754.500000	1.586513
378.190000	1108.500000	3667.500000	1.586459
378.690000	1108.000000	3674.500000	1.586404
379.190000	1107.500000	3727.000000	1.586349
379.690000	1107.000000	3640.000000	1.586294
380.190000	1106.500000	3697.500000	1.586239
380.690000	1106.000000	3804.500000	1.586184
381.190000	1105.500000	3768.500000	1.586130
381.690000	1105.000000	3703.000000	1.586075
382.190000	1104.500000	3701.000000	1.586020
382.690000	1104.000000	3791.500000	1.585965
383.190000	1103.500000	3818.000000	1.585910
383.690000	1103.000000	3768.000000	1.585855
384.190000	1102.500000	3775.500000	1.585801
384.690000	1102.000000	3827.500000	1.585746
385.190000	1101.500000	3831.500000	1.585691
385.690000	1101.000000	3822.000000	1.585636
386.190000	1100.500000	3773.500000	1.585581
386.690000	1100.000000	3732.000000	1.585526
387.190000	1099.500000	3777.000000	1.585471
387.690000	1099.000000	3781.500000	1.585417
388.190000	1098.500000	3778.000000	1.585362
388.690000	1098.000000	3795.000000	1.585307
389.190000	1097.500000	3815.000000	1.585252
389.690000	1097.000000	3798.500000	1.585197
390.190000	1096.500000	3814.500000	1.585142
390.690000	1096.000000	3935.500000	1.585088
391.190000	1095.500000	3871.500000	1.585033
391.690000	1095.000000	3823.500000	1.584978
392.190000	1094.500000	3862.000000	1.584923
392.690000	1094.000000	3862.500000	1.584868
393.190000	1093.500000	3936.000000	1.584813
393.690000	1093.000000	3942.500000	1.584759
394.190000	1092.500000	4036.500000	1.584704
394.690000	1092.000000	4154.000000	1.584649
395.190000	1091.500000	4228.500000	1.584594
395.690000	1091.000000	4312.500000	1.584539
396.190000	1090.500000	4344.500000	1.584484
396.690000	1090.000000	4450.000000	1.584429
397.190000	1089.500000	4651.500000	1.584375
397.690000	1089.000000	4872.000000	1.584320
398.190000	1088.500000	5183.000000	1.584265
398.690000	1088.000000	5429.000000	1.584210
399.190000	1087.500000	5625.000000	1.584155
399.690000	1087.000000	5767.500000	1.584100
400.190000	1086.500000	5872.000000	1.584046
400.690000	1086.000000	5962.000000	1.583991
401.190000	1085.500000	5725.500000	1.583936
401.690000	1085.000000	5637.500000	1.583881
402.190000	1084.500000	5484.500000	1.583826
402.690000	1084.000000	5266.000000	1.583771
403.190000	1083.500000	5049.500000	1.583717
403.690000	1083.000000	4793.500000	1.583662
404.190000	1082.500000	4643.000000	1.583607
404.690000	1082.000000	4596.500000	1.583552
405.190000	1081.500000	4649.500000	1.583497
405.690000	1081.000000	4740.500000	1.583442
406.190000	1080.500000	4807.500000	1.583387
406.690000	1080.000000	4850.500000	1.583333
407.190000	1079.500000	4841.500000	1.583278
407.690000	1079.000000	4798.000000	1.583223
408.190000	1078.500000	4676.500000	1.583168
408.690000	1078.000000	4437.000000	1.583113
409.190000	1077.500000	4226.500000	1.583058
409.690000	1077.000000	4009.000000	1.583004
410.190000	1076.500000	3774.500000	1.582949
410.690000	1076.000000	3663.000000	1.582894
411.190000	1075.500000	3540.000000	1.582839
411.690000	1075.000000	3481.000000	1.582784
412.190000	1074.500000	3321.000000	1.582729
412.690000	1074.000000	3275.500000	1.582675
413.190000	1073.500000	3174.000000	1.582620
413.690000	1073.000000	3209.000000	1.582565
414.190000	1072.500000	3119.000000	1.582510
414.690000	1072.000000	3203.500000	1.582455
415.190000	1071.500000	3174.500000	1.582400
415.690000	1071.000000	3223.000000	1.582345
416.190000	1070.500000	3257.500000	1.582291
416.690000	1070.000000	3208.500000	1.582236
417.190000	1069.500000	3217.000000	1.582181
417.690000	1069.000000	3267.000000	1.582126
418.190000	1068.500000	3281.500000	1.582071
418.690000	1068.000000	3299.500000	1.582016
419.190000	1067.500000	3271.000000	1.581962
419.690000	1067.000000	3305.500000	1.581907
420.190000	1066.500000	3311.500000	1.581852
420.690000	1066.000000	3344.500000	1.581797
421.190000	1065.500000	3292.000000	1.581742
421.690000	1065.000000	3272.000000	1.581687
422.190000	1064.500000	3320.500000	1.581633
422.690000	1064.000000	3376.000000	1.581578
423.190000	1063.500000	3383.000000	1.581523
423.690000	1063.000000	3425.000000	1.581468
424.190000	1062.500000	3468.500000	1.581413
424.690000	1062.000000	3539.500000	1.581358
425.190000	1061.500000	3503.500000	1.581303
425.690000	1061.000000	3502.000000	1.581249
426.190000	1060.500000	3496.500000	1.581194
426.690000	1060.000000	3513.000000	1.581139
427.190000	1059.500000	3458.000000	1.581084
427.690000	1059.000000	3507.500000	1.581029
428.190000	1058.500000	3388.000000	1.580974
428.690000	1058.000000	3417.500000	1.580920
429.190000	1057.500000	3327.000000	1.580865
429.690000	1057.000000	3295.500000	1.580810
430.190000	1056.500000	3302.000000	1.580755
430.690000	1056.000000	3228.000000	1.580700
431.190000	1055.500000	3340.000000	1.580645
431.690000	1055.000000	3290.500000	1.580590
432.190000	1054.500000	3315.000000	1.580536
432.690000	1054.000000	3351.000000	1.580481
433.190000	1053.500000	3333.000000	1.580426
433.690000	1053.000000	3314.500000	1.580371
434.190000	1052.500000	3346.000000	1.580316
434.690000	1052.000000	3331.500000	1.580261
435.190000	1051.500000	3238.000000	1.580207
435.690000	1051.000000	3231.000000	1.580152
436.190000	1050.500000	3156.500000	1.580097
436.690000	1050.000000	3170.000000	1.580042
437.190000	1049.500000	3181.000000	1.579987
437.690000	1049.000000	3227.000000	1.579932
438.190000	1048.500000	3146.000000	1.579878
438.690000	1048.000000	3157.000000	1.579823
439.190000	1047.500000	3131.000000	1.579768
439.690000	1047.000000	3152.000000	1.579713
440.190000	1046.500000	3156.500000	1.579658
440.690000	1046.000000	3134.000000	1.579603
441.190000	1045.500000	3204.500000	1.579548
441.690000	1045.000000	3179.500000	1.579494
442.190000	1044.500000	3196.000000	1.579439
442.690000	1044.000000	3231.000000	1.579384
443.190000	1043.500000	3230.000000	1.579329
443.690000	1043.000000	3144.500000	1.579274
444.190000	1042.500000	3198.500000	1.579219
444.690000	1042.000000	3259.000000	1.579165
445.190000	1041.500000	3207.000000	1.579110
445.690000	1041.000000	3328.000000	1.579055
446.190000	1040.500000	3275.000000	1.579000
446.690000	1040.000000	3242.500000	1.578945
447.190000	1039.500000	3257.000000	1.578890
447.690000	1039.000000	3236.000000	1.578836
448.190000	1038.500000	3228.000000	1.578781
448.690000	1038.000000	3249.000000	1.578726
449.190000	1037.500000	3333.000000	1.578671
449.690000	1037.000000	3367.500000	1.578616
450.190000	1036.500000	3341.500000	1.578561
450.690000	1036.000000	3286.000000	1.578506
451.190000	1035.500000	3301.000000	1.578452
451.690000	1035.000000	3321.000000	1.578397
452.190000	1034.500000	3337.000000	1.578342
452.690000	1034.000000	3342.500000	1.578287
453.190000	1033.500000	3402.000000	1.578232
453.690000	1033.000000	3372.000000	1.578177
454.190000	1032.500000	3324.500000	1.578123
454.690000	1032.000000	3312.000000	1.578068
455.190000	1031.500000	3360.500000	1.578013
455.690000	1031.000000	3418.000000	1.577958
456.190000	1030.500000	3419.500000	1.577908
456.690000	1030.000000	3353.000000	1.577869
457.190000	1029.500000	3380.000000	1.577830
457.690000	1029.000000	3378.000000	1.577790
458.190000	1028.500000	3405.000000	1.577751
458.690000	1028.000000	3399.000000	1.577712
459.190000	1027.500000	3450.000000	1.577673
459.690000	1027.000000	3482.000000	1.577633
460.190000	1026.500000	3454.000000	1.577594
460.690000	1026.000000	3468.500000	1.577555
461.190000	1025.500000	3483.000000	1.577515
461.690000	1025.000000	3484.000000	1.577476
462.190000	1024.500000	3559.500000	1.577437
462.690000	1024.000000	3479.000000	1.577398
463.190000	1023.500000	3495.000000	1.577358
463.690000	1023.000000	3532.500000	1.577319
464.190000	1022.500000	3490.000000	1.577280
464.690000	1022.000000	3480.500000	1.577240
465.190000	1021.500000	3514.000000	1.577201
465.690000	1021.000000	3505.500000	1.577162
466.190000	1020.500000	3563.000000	1.577123
466.690000	1020.000000	3541.000000	1.577083
467.190000	1019.500000	3562.500000	1.577044
467.690000	1019.000000	3548.500000	1.577005
468.190000	1018.500000	3560.000000	1.576965
468.690000	1018.000000	3556.000000	1.576926
469.190000	1017.500000	3595.500000	1.576887
469.690000	1017.000000	3573.500000	1.576848
470.190000	1016.500000	3611.500000	1.576808
470.690000	1016.000000	3712.500000	1.576769
471.190000	1015.500000	3665.500000	1.576730
471.690000	1015.000000	3682.000000	1.576691
472.190000	1014.500000	3623.500000	1.576651
472.690000	1014.000000	3685.500000	1.576612
473.190000	1013.500000	3678.000000	1.576573
473.690000	1013.000000	3660.000000	1.576533
474.190000	1012.500000	3695.500000	1.576494
474.690000	1012.000000	3718.000000	1.576455
475.190000	1011.500000	3716.000000	1.576416
475.690000	1011.000000	3715.000000	1.576376
476.190000	1010.500000	3778.500000	1.576337
476.690000	1010.000000	3762.500000	1.576298
477.190000	1009.500000	3768.500000	1.576258
477.690000	1009.000000	3748.000000	1.576219
478.190000	1008.500000	3748.000000	1.576180
478.690000	1008.000000	3796.000000	1.576141
479.190000	1007.500000	3840.000000	1.576101
479.690000	1007.000000	3797.500000	1.576062
480.190000	1006.500000	3769.000000	1.576023
480.690000	1006.000000	3868.500000	1.575983
481.190000	1005.500000	3851.500000	1.575944
481.690000	1005.000000	3748.000000	1.575905
482.190000	1004.500000	3802.000000	1.575866
482.690000	1004.000000	3795.500000	1.575826
483.190000	1003.500000	3796.000000	1.575787
483.690000	1003.000000	3823.500000	1.575748
484.190000	1002.500000	3880.500000	1.575709
484.690000	1002.000000	3868.000000	1.575669
485.190000	1001.500000	3923.000000	1.575630
485.690000	1001.000000	3902.500000	1.575591
486.190000	1000.500000	3924.500000	1.575551
486.690000	1000.000000	3935.500000	1.575512
487.190000	999.500000	3931.500000	1.575473
487.690000	999.000000	4079.000000	1.575434
488.190000	998.500000	4099.500000	1.575394
488.690000	998.000000	4052.500000	1.575355
489.190000	997.500000	4051.500000	1.575316
489.690000	997.000000	4061.500000	1.575276
490.190000	996.500000	4090.500000	1.575237
490.690000	996.000000	4102.500000	1.575198
491.190000	995.500000	4164.500000	1.575159
491.690000	995.000000	4248.500000	1.575119
492.190000	994.500000	4224.000000	1.575080
492.690000	994.000000	4234.000000	1.575041
493.190000	993.500000	4218.500000	1.575001
493.690000	993.000000	4100.500000	1.574962
494.190000	992.500000	4060.500000	1.574923
494.690000	992.000000	3996.500000	1.574884
495.190000	991.500000	3983.500000	1.574844
495.690000	991.000000	3975.000000	1.574805
496.190000	990.500000	4033.500000	1.574766
496.690000	990.000000	4044.000000	1.574727
497.190000	989.500000	4020.000000	1.574687
497.690000	989.000000	4047.500000	1.574648
498.190000	988.500000	3990.000000	1.574609
498.690000	988.000000	4040.500000	1.574569
499.190000	987.500000	3988.000000	1.574530
499.690000	987.000000	4006.500000	1.574491
500.190000	986.500000	3980.000000	1.574452
500.690000	986.000000	3991.500000	1.574412
501.190000	985.500000	4007.500000	1.574373
501.690000	985.000000	4041.500000	1.574334
502.190000	984.500000	4026.000000	1.574294
502.690000	984.000000	4040.000000	1.574255
503.190000	983.500000	3984.500000	1.574216
503.690000	983.000000	3975.000000	1.574177
504.190000	982.500000	4083.000000	1.574137
504.690000	982.000000	4076.500000	1.574098
505.190000	981.500000	4077.000000	1.574059
505.690000	981.000000	4088.000000	1.574019
506.190000	980.500000	4197.000000	1.573980
506.690000	980.000000	4106.500000	1.573941
507.190000	979.500000	4185.000000	1.573902
507.690000	979.000000	4302.000000	1.573862
508.190000	978.500000	4352.000000	1.573823
508.690000	978.000000	4418.500000	1.573784
509.190000	977.500000	4535.500000	1.573745
509.690000	977.000000	4617.500000	1.573705
510.190000	976.500000	4789.500000	1.573666
510.690000	976.000000	4930.500000	1.573627
511.190000	975.500000	5067.000000	1.573587
511.690000	975.000000	5245.500000	1.573548
512.190000	974.500000	5278.500000	1.573509
