Dataset Au 4f Au #2:97(rrt)
Dwell Time (s)	0.100000
Number of sweeps	1
Kinetic Energy(eV)	Binding Energy(eV)	Intensity(cps)	Transmission Value
1394.190000	92.500000	21960.000000	1.481856
1394.215000	92.475000	21980.000000	1.481830
1394.240000	92.450000	21420.000000	1.481804
1394.265000	92.425000	22230.000000	1.481778
1394.290000	92.400000	22070.000000	1.481752
1394.315000	92.375000	22650.000000	1.481726
1394.340000	92.350000	21620.000000	1.481700
1394.365000	92.325000	21970.000000	1.481674
1394.390000	92.300000	22850.000000	1.481648
1394.415000	92.275000	22100.000000	1.481622
1394.440000	92.250000	21030.000000	1.481596
1394.465000	92.225000	22140.000000	1.481570
1394.490000	92.200000	21300.000000	1.481544
1394.515000	92.175000	22320.000000	1.481518
1394.540000	92.150000	21740.000000	1.481492
1394.565000	92.125000	21200.000000	1.481466
1394.590000	92.100000	21620.000000	1.481440
1394.615000	92.075000	21600.000000	1.481414
1394.640000	92.050000	21580.000000	1.481388
1394.665000	92.025000	21700.000000	1.481362
1394.690000	92.000000	21770.000000	1.481335
1394.715000	91.975000	22190.000000	1.481309
1394.740000	91.950000	22980.000000	1.481283
1394.765000	91.925000	22410.000000	1.481257
1394.790000	91.900000	22330.000000	1.481231
1394.815000	91.875000	22240.000000	1.481205
1394.840000	91.850000	22560.000000	1.481179
1394.865000	91.825000	21970.000000	1.481153
1394.890000	91.800000	22430.000000	1.481127
1394.915000	91.775000	22090.000000	1.481101
1394.940000	91.750000	22570.000000	1.481075
1394.965000	91.725000	22800.000000	1.481049
1394.990000	91.700000	22640.000000	1.481023
1395.015000	91.675000	23060.000000	1.480997
1395.040000	91.650000	22870.000000	1.480971
1395.065000	91.625000	23030.000000	1.480945
1395.090000	91.600000	23010.000000	1.480919
1395.115000	91.575000	22640.000000	1.480893
1395.140000	91.550000	22950.000000	1.480867
1395.165000	91.525000	23280.000000	1.480841
1395.190000	91.500000	23510.000000	1.480815
1395.215000	91.475000	23770.000000	1.480789
1395.240000	91.450000	23620.000000	1.480763
1395.265000	91.425000	22990.000000	1.480737
1395.290000	91.400000	22660.000000	1.480711
1395.315000	91.375000	23340.000000	1.480685
1395.340000	91.350000	23610.000000	1.480658
1395.365000	91.325000	24010.000000	1.480632
1395.390000	91.300000	24670.000000	1.480606
1395.415000	91.275000	23990.000000	1.480580
1395.440000	91.250000	23890.000000	1.480554
1395.465000	91.225000	24180.000000	1.480528
1395.490000	91.200000	24860.000000	1.480502
1395.515000	91.175000	24000.000000	1.480476
1395.540000	91.150000	24460.000000	1.480450
1395.565000	91.125000	24110.000000	1.480424
1395.590000	91.100000	24700.000000	1.480398
1395.615000	91.075000	25000.000000	1.480372
1395.640000	91.050000	24540.000000	1.480346
1395.665000	91.025000	24540.000000	1.480320
1395.690000	91.000000	24610.000000	1.480294
1395.715000	90.975000	24710.000000	1.480268
1395.740000	90.950000	24720.000000	1.480242
1395.765000	90.925000	24290.000000	1.480216
1395.790000	90.900000	25170.000000	1.480190
1395.815000	90.875000	25680.000000	1.480164
1395.840000	90.850000	25180.000000	1.480138
1395.865000	90.825000	25110.000000	1.480112
1395.890000	90.800000	25710.000000	1.480086
1395.915000	90.775000	25850.000000	1.480060
1395.940000	90.750000	24960.000000	1.480034
1395.965000	90.725000	25050.000000	1.480007
1395.990000	90.700000	25800.000000	1.479981
1396.015000	90.675000	25940.000000	1.479955
1396.040000	90.650000	25670.000000	1.479929
1396.065000	90.625000	25990.000000	1.479903
1396.090000	90.600000	26750.000000	1.479877
1396.115000	90.575000	26210.000000	1.479851
1396.140000	90.550000	26390.000000	1.479825
1396.165000	90.525000	26320.000000	1.479799
1396.190000	90.500000	26440.000000	1.479773
1396.215000	90.475000	26620.000000	1.479747
1396.240000	90.450000	26230.000000	1.479721
1396.265000	90.425000	26220.000000	1.479695
1396.290000	90.400000	26970.000000	1.479669
1396.315000	90.375000	27260.000000	1.479643
1396.340000	90.350000	27560.000000	1.479617
1396.365000	90.325000	27000.000000	1.479591
1396.390000	90.300000	26740.000000	1.479565
1396.415000	90.275000	26200.000000	1.479539
1396.440000	90.250000	27390.000000	1.479513
1396.465000	90.225000	26920.000000	1.479487
1396.490000	90.200000	27420.000000	1.479461
1396.515000	90.175000	26540.000000	1.479435
1396.540000	90.150000	26440.000000	1.479409
1396.565000	90.125000	27050.000000	1.479383
1396.590000	90.100000	27100.000000	1.479357
1396.615000	90.075000	27560.000000	1.479330
1396.640000	90.050000	26740.000000	1.479304
1396.665000	90.025000	27010.000000	1.479278
1396.690000	90.000000	27330.000000	1.479252
1396.715000	89.975000	27830.000000	1.479226
1396.740000	89.950000	26840.000000	1.479200
1396.765000	89.925000	27660.000000	1.479174
1396.790000	89.900000	27600.000000	1.479148
1396.815000	89.875000	27510.000000	1.479122
1396.840000	89.850000	26990.000000	1.479096
1396.865000	89.825000	27400.000000	1.479070
1396.890000	89.800000	27210.000000	1.479044
1396.915000	89.775000	27110.000000	1.479018
1396.940000	89.750000	26720.000000	1.478992
1396.965000	89.725000	27560.000000	1.478966
1396.990000	89.700000	27980.000000	1.478940
1397.015000	89.675000	27300.000000	1.478914
1397.040000	89.650000	27080.000000	1.478888
1397.065000	89.625000	27800.000000	1.478862
1397.090000	89.600000	27890.000000	1.478836
1397.115000	89.575000	28050.000000	1.478810
1397.140000	89.550000	28060.000000	1.478784
1397.165000	89.525000	27610.000000	1.478758
1397.190000	89.500000	27340.000000	1.478732
1397.215000	89.475000	27630.000000	1.478706
1397.240000	89.450000	28380.000000	1.478679
1397.265000	89.425000	28260.000000	1.478653
1397.290000	89.400000	28460.000000	1.478627
1397.315000	89.375000	28390.000000	1.478601
1397.340000	89.350000	27690.000000	1.478575
1397.365000	89.325000	28930.000000	1.478549
1397.390000	89.300000	28950.000000	1.478523
1397.415000	89.275000	28910.000000	1.478497
1397.440000	89.250000	29150.000000	1.478471
1397.465000	89.225000	29860.000000	1.478445
1397.490000	89.200000	29390.000000	1.478419
1397.515000	89.175000	30200.000000	1.478393
1397.540000	89.150000	30410.000000	1.478367
1397.565000	89.125000	30360.000000	1.478341
1397.590000	89.100000	31520.000000	1.478315
1397.615000	89.075000	31410.000000	1.478289
1397.640000	89.050000	32140.000000	1.478263
1397.665000	89.025000	32180.000000	1.478237
1397.690000	89.000000	32290.000000	1.478211
1397.715000	88.975000	32740.000000	1.478185
1397.740000	88.950000	33120.000000	1.478159
1397.765000	88.925000	33770.000000	1.478133
1397.790000	88.900000	34890.000000	1.478107
1397.815000	88.875000	35460.000000	1.478081
1397.840000	88.850000	35880.000000	1.478055
1397.865000	88.825000	36790.000000	1.478029
1397.890000	88.800000	38090.000000	1.478002
1397.915000	88.775000	38820.000000	1.477976
1397.940000	88.750000	38960.000000	1.477950
1397.965000	88.725000	39690.000000	1.477924
1397.990000	88.700000	41660.000000	1.477898
1398.015000	88.675000	42900.000000	1.477872
1398.040000	88.650000	44330.000000	1.477846
1398.065000	88.625000	45520.000000	1.477820
1398.090000	88.600000	47750.000000	1.477794
1398.115000	88.575000	48480.000000	1.477768
1398.140000	88.550000	49380.000000	1.477742
1398.165000	88.525000	51430.000000	1.477716
1398.190000	88.500000	53930.000000	1.477690
1398.215000	88.475000	54930.000000	1.477664
1398.240000	88.450000	57100.000000	1.477638
1398.265000	88.425000	60680.000000	1.477612
1398.290000	88.400000	62980.000000	1.477586
1398.315000	88.375000	65430.000000	1.477560
1398.340000	88.350000	68230.000000	1.477534
1398.365000	88.325000	70300.000000	1.477508
1398.390000	88.300000	74010.000000	1.477482
1398.415000	88.275000	78870.000000	1.477456
1398.440000	88.250000	81090.000000	1.477430
1398.465000	88.225000	84530.000000	1.477404
1398.490000	88.200000	89640.000000	1.477378
1398.515000	88.175000	92360.000000	1.477351
1398.540000	88.150000	99410.000000	1.477325
1398.565000	88.125000	102920.000000	1.477299
1398.590000	88.100000	109990.000000	1.477273
1398.615000	88.075000	114480.000000	1.477247
1398.640000	88.050000	119700.000000	1.477221
1398.665000	88.025000	124970.000000	1.477195
1398.690000	88.000000	131780.000000	1.477169
1398.715000	87.975000	138910.000000	1.477143
1398.740000	87.950000	146490.000000	1.477117
1398.765000	87.925000	154140.000000	1.477091
1398.790000	87.900000	160340.000000	1.477065
1398.815000	87.875000	167470.000000	1.477039
1398.840000	87.850000	174810.000000	1.477013
1398.865000	87.825000	182500.000000	1.476987
1398.890000	87.800000	193690.000000	1.476961
1398.915000	87.775000	201660.000000	1.476935
1398.940000	87.750000	206160.000000	1.476909
1398.965000	87.725000	212810.000000	1.476883
1398.990000	87.700000	219340.000000	1.476857
1399.015000	87.675000	224560.000000	1.476831
1399.040000	87.650000	232090.000000	1.476805
1399.065000	87.625000	236790.000000	1.476779
1399.090000	87.600000	237870.000000	1.476753
1399.115000	87.575000	238300.000000	1.476727
1399.140000	87.550000	238720.000000	1.476701
1399.165000	87.525000	241430.000000	1.476674
1399.190000	87.500000	237170.000000	1.476648
1399.215000	87.475000	233490.000000	1.476622
1399.240000	87.450000	228590.000000	1.476596
1399.265000	87.425000	221590.000000	1.476570
1399.290000	87.400000	215840.000000	1.476544
1399.315000	87.375000	209690.000000	1.476518
1399.340000	87.350000	203240.000000	1.476492
1399.365000	87.325000	192470.000000	1.476466
1399.390000	87.300000	181600.000000	1.476440
1399.415000	87.275000	171660.000000	1.476414
1399.440000	87.250000	163360.000000	1.476388
1399.465000	87.225000	150970.000000	1.476362
1399.490000	87.200000	142520.000000	1.476336
1399.515000	87.175000	131720.000000	1.476310
1399.540000	87.150000	123800.000000	1.476284
1399.565000	87.125000	115340.000000	1.476258
1399.590000	87.100000	107170.000000	1.476232
1399.615000	87.075000	98500.000000	1.476206
1399.640000	87.050000	92530.000000	1.476180
1399.665000	87.025000	85450.000000	1.476154
1399.690000	87.000000	81160.000000	1.476128
1399.715000	86.975000	75300.000000	1.476102
1399.740000	86.950000	69000.000000	1.476076
1399.765000	86.925000	65390.000000	1.476050
1399.790000	86.900000	62960.000000	1.476023
1399.815000	86.875000	58480.000000	1.475997
1399.840000	86.850000	56220.000000	1.475971
1399.865000	86.825000	53150.000000	1.475945
1399.890000	86.800000	50790.000000	1.475919
1399.915000	86.775000	48250.000000	1.475893
1399.940000	86.750000	45760.000000	1.475867
1399.965000	86.725000	44070.000000	1.475841
1399.990000	86.700000	43760.000000	1.475815
1400.015000	86.675000	41800.000000	1.475789
1400.040000	86.650000	39880.000000	1.475763
1400.065000	86.625000	37680.000000	1.475737
1400.090000	86.600000	37450.000000	1.475711
1400.115000	86.575000	37390.000000	1.475685
1400.140000	86.550000	36520.000000	1.475659
1400.165000	86.525000	35060.000000	1.475633
1400.190000	86.500000	34980.000000	1.475607
1400.215000	86.475000	34050.000000	1.475581
1400.240000	86.450000	34080.000000	1.475555
1400.265000	86.425000	33480.000000	1.475529
1400.290000	86.400000	31570.000000	1.475503
1400.315000	86.375000	31850.000000	1.475477
1400.340000	86.350000	31780.000000	1.475451
1400.365000	86.325000	30930.000000	1.475425
1400.390000	86.300000	30970.000000	1.475399
1400.415000	86.275000	29450.000000	1.475373
1400.440000	86.250000	29010.000000	1.475346
1400.465000	86.225000	28960.000000	1.475320
1400.490000	86.200000	28210.000000	1.475294
1400.515000	86.175000	28590.000000	1.475268
1400.540000	86.150000	28420.000000	1.475242
1400.565000	86.125000	28240.000000	1.475216
1400.590000	86.100000	26940.000000	1.475190
1400.615000	86.075000	27940.000000	1.475164
1400.640000	86.050000	27330.000000	1.475138
1400.665000	86.025000	26730.000000	1.475112
1400.690000	86.000000	26660.000000	1.475086
1400.715000	85.975000	26610.000000	1.475060
1400.740000	85.950000	26340.000000	1.475034
1400.765000	85.925000	25730.000000	1.475008
1400.790000	85.900000	26020.000000	1.474982
1400.815000	85.875000	26400.000000	1.474956
1400.840000	85.850000	25630.000000	1.474930
1400.865000	85.825000	25290.000000	1.474904
1400.890000	85.800000	25600.000000	1.474878
1400.915000	85.775000	26080.000000	1.474852
1400.940000	85.750000	25250.000000	1.474826
1400.965000	85.725000	26100.000000	1.474800
1400.990000	85.700000	25740.000000	1.474774
1401.015000	85.675000	26110.000000	1.474748
1401.040000	85.650000	26160.000000	1.474722
1401.065000	85.625000	25860.000000	1.474695
1401.090000	85.600000	26330.000000	1.474669
1401.115000	85.575000	27560.000000	1.474643
1401.140000	85.550000	27220.000000	1.474617
1401.165000	85.525000	26830.000000	1.474591
1401.190000	85.500000	27560.000000	1.474565
1401.215000	85.475000	27330.000000	1.474539
1401.240000	85.450000	27380.000000	1.474513
1401.265000	85.425000	28880.000000	1.474487
1401.290000	85.400000	28260.000000	1.474461
1401.315000	85.375000	28310.000000	1.474435
1401.340000	85.350000	29570.000000	1.474409
1401.365000	85.325000	30340.000000	1.474383
1401.390000	85.300000	30220.000000	1.474357
1401.415000	85.275000	30250.000000	1.474331
1401.440000	85.250000	31590.000000	1.474305
1401.465000	85.225000	31860.000000	1.474279
1401.490000	85.200000	31550.000000	1.474253
1401.515000	85.175000	31980.000000	1.474227
1401.540000	85.150000	33610.000000	1.474201
1401.565000	85.125000	34820.000000	1.474175
1401.590000	85.100000	36020.000000	1.474149
1401.615000	85.075000	36740.000000	1.474123
1401.640000	85.050000	38600.000000	1.474097
1401.665000	85.025000	39440.000000	1.474071
1401.690000	85.000000	40340.000000	1.474044
1401.715000	84.975000	42580.000000	1.474018
1401.740000	84.950000	43980.000000	1.473992
1401.765000	84.925000	45880.000000	1.473966
1401.790000	84.900000	47950.000000	1.473940
1401.815000	84.875000	49070.000000	1.473914
1401.840000	84.850000	52070.000000	1.473888
1401.865000	84.825000	55130.000000	1.473862
1401.890000	84.800000	56600.000000	1.473836
1401.915000	84.775000	59260.000000	1.473810
1401.940000	84.750000	62070.000000	1.473784
1401.965000	84.725000	65180.000000	1.473758
1401.990000	84.700000	69400.000000	1.473732
1402.015000	84.675000	72720.000000	1.473706
1402.040000	84.650000	74570.000000	1.473680
1402.065000	84.625000	79680.000000	1.473654
1402.090000	84.600000	83100.000000	1.473628
1402.115000	84.575000	87200.000000	1.473602
1402.140000	84.550000	91570.000000	1.473576
1402.165000	84.525000	98510.000000	1.473550
1402.190000	84.500000	103910.000000	1.473524
1402.215000	84.475000	108950.000000	1.473498
1402.240000	84.450000	115990.000000	1.473472
1402.265000	84.425000	124460.000000	1.473446
1402.290000	84.400000	130240.000000	1.473420
1402.315000	84.375000	137130.000000	1.473394
1402.340000	84.350000	144970.000000	1.473367
1402.365000	84.325000	155520.000000	1.473341
1402.390000	84.300000	164130.000000	1.473315
1402.415000	84.275000	172020.000000	1.473289
1402.440000	84.250000	180360.000000	1.473263
1402.465000	84.225000	190900.000000	1.473237
1402.490000	84.200000	199820.000000	1.473211
1402.515000	84.175000	209990.000000	1.473185
1402.540000	84.150000	220340.000000	1.473159
1402.565000	84.125000	230990.000000	1.473133
1402.590000	84.100000	240130.000000	1.473107
1402.615000	84.075000	249360.000000	1.473081
1402.640000	84.050000	260560.000000	1.473055
1402.665000	84.025000	269720.000000	1.473029
1402.690000	84.000000	276040.000000	1.473003
1402.715000	83.975000	283840.000000	1.472977
1402.740000	83.950000	288320.000000	1.472951
1402.765000	83.925000	290480.000000	1.472925
1402.790000	83.900000	295910.000000	1.472899
1402.815000	83.875000	296320.000000	1.472873
1402.840000	83.850000	298830.000000	1.472847
1402.865000	83.825000	296460.000000	1.472821
1402.890000	83.800000	288570.000000	1.472795
1402.915000	83.775000	285590.000000	1.472769
1402.940000	83.750000	278530.000000	1.472743
1402.965000	83.725000	267540.000000	1.472716
1402.990000	83.700000	257260.000000	1.472690
1403.015000	83.675000	245270.000000	1.472664
1403.040000	83.650000	232910.000000	1.472638
1403.065000	83.625000	220690.000000	1.472612
1403.090000	83.600000	205420.000000	1.472586
1403.115000	83.575000	191560.000000	1.472560
1403.140000	83.550000	181230.000000	1.472534
1403.165000	83.525000	167220.000000	1.472508
1403.190000	83.500000	153110.000000	1.472482
1403.215000	83.475000	140780.000000	1.472456
1403.240000	83.450000	130890.000000	1.472430
1403.265000	83.425000	119330.000000	1.472404
1403.290000	83.400000	108190.000000	1.472378
1403.315000	83.375000	98860.000000	1.472352
1403.340000	83.350000	90890.000000	1.472326
1403.365000	83.325000	82120.000000	1.472300
1403.390000	83.300000	75370.000000	1.472274
1403.415000	83.275000	70200.000000	1.472248
1403.440000	83.250000	63530.000000	1.472222
1403.465000	83.225000	57250.000000	1.472196
1403.490000	83.200000	55010.000000	1.472170
1403.515000	83.175000	50740.000000	1.472144
1403.540000	83.150000	46090.000000	1.472118
1403.565000	83.125000	42930.000000	1.472092
1403.590000	83.100000	40650.000000	1.472066
1403.615000	83.075000	37700.000000	1.472039
1403.640000	83.050000	34690.000000	1.472013
1403.665000	83.025000	32840.000000	1.471987
1403.690000	83.000000	30800.000000	1.471961
1403.715000	82.975000	29100.000000	1.471935
1403.740000	82.950000	28130.000000	1.471909
1403.765000	82.925000	26740.000000	1.471883
1403.790000	82.900000	24760.000000	1.471857
1403.815000	82.875000	23870.000000	1.471831
1403.840000	82.850000	22750.000000	1.471805
1403.865000	82.825000	20930.000000	1.471779
1403.890000	82.800000	20930.000000	1.471753
1403.915000	82.775000	20510.000000	1.471727
1403.940000	82.750000	19310.000000	1.471701
1403.965000	82.725000	18740.000000	1.471675
1403.990000	82.700000	18410.000000	1.471649
1404.015000	82.675000	17370.000000	1.471623
1404.040000	82.650000	16330.000000	1.471597
1404.065000	82.625000	16180.000000	1.471571
1404.090000	82.600000	15500.000000	1.471545
1404.115000	82.575000	15400.000000	1.471519
1404.140000	82.550000	15620.000000	1.471493
1404.165000	82.525000	15030.000000	1.471467
1404.190000	82.500000	14560.000000	1.471441
1404.215000	82.475000	14490.000000	1.471415
1404.240000	82.450000	13400.000000	1.471388
1404.265000	82.425000	13500.000000	1.471362
1404.290000	82.400000	13300.000000	1.471336
1404.315000	82.375000	12450.000000	1.471310
1404.340000	82.350000	12580.000000	1.471284
1404.365000	82.325000	12070.000000	1.471258
1404.390000	82.300000	11710.000000	1.471232
1404.415000	82.275000	11490.000000	1.471206
1404.440000	82.250000	11700.000000	1.471180
1404.465000	82.225000	11530.000000	1.471154
1404.490000	82.200000	11380.000000	1.471128
1404.515000	82.175000	10320.000000	1.471102
1404.540000	82.150000	10230.000000	1.471076
1404.565000	82.125000	10320.000000	1.471050
1404.590000	82.100000	10360.000000	1.471024
1404.615000	82.075000	10130.000000	1.470998
1404.640000	82.050000	9990.000000	1.470972
1404.665000	82.025000	9940.000000	1.470946
1404.690000	82.000000	10070.000000	1.470920
1404.715000	81.975000	9570.000000	1.470894
1404.740000	81.950000	9520.000000	1.470868
1404.765000	81.925000	9800.000000	1.470842
1404.790000	81.900000	9320.000000	1.470816
1404.815000	81.875000	9000.000000	1.470790
1404.840000	81.850000	9370.000000	1.470764
1404.865000	81.825000	9020.000000	1.470738
1404.890000	81.800000	9310.000000	1.470711
1404.915000	81.775000	9120.000000	1.470685
1404.940000	81.750000	9050.000000	1.470659
1404.965000	81.725000	8460.000000	1.470633
1404.990000	81.700000	8410.000000	1.470607
1405.015000	81.675000	8810.000000	1.470581
1405.040000	81.650000	8420.000000	1.470555
1405.065000	81.625000	8530.000000	1.470529
1405.090000	81.600000	7790.000000	1.470503
1405.115000	81.575000	8510.000000	1.470477
1405.140000	81.550000	8090.000000	1.470451
1405.165000	81.525000	8350.000000	1.470425
1405.190000	81.500000	7890.000000	1.470399
1405.215000	81.475000	7710.000000	1.470373
1405.240000	81.450000	7950.000000	1.470347
1405.265000	81.425000	8210.000000	1.470321
1405.290000	81.400000	8060.000000	1.470295
1405.315000	81.375000	7700.000000	1.470269
1405.340000	81.350000	7740.000000	1.470243
1405.365000	81.325000	7530.000000	1.470217
1405.390000	81.300000	7650.000000	1.470191
1405.415000	81.275000	7580.000000	1.470165
