Dataset wide_Au_#1 1-5:27(rrt)
Dwell Time (s)	0.100000
Number of sweeps	1
Kinetic Energy(eV)	Binding Energy(eV)	Intensity(cps)	Transmission Value
286.690000	1200.000000	49610.000000	5.684839
287.690000	1199.000000	48940.000000	5.689028
288.690000	1198.000000	48200.000000	5.693218
289.690000	1197.000000	48310.000000	5.697407
290.690000	1196.000000	49120.000000	5.701597
291.690000	1195.000000	49040.000000	5.705786
292.690000	1194.000000	48700.000000	5.709976
293.690000	1193.000000	48700.000000	5.714165
294.690000	1192.000000	48150.000000	5.718355
295.690000	1191.000000	47830.000000	5.722545
296.690000	1190.000000	47810.000000	5.726734
297.690000	1189.000000	47710.000000	5.730924
298.690000	1188.000000	48780.000000	5.735113
299.690000	1187.000000	48350.000000	5.739303
300.690000	1186.000000	48540.000000	5.743492
301.690000	1185.000000	48290.000000	5.747682
302.690000	1184.000000	49550.000000	5.751871
303.690000	1183.000000	50010.000000	5.756061
304.690000	1182.000000	50200.000000	5.760250
305.690000	1181.000000	50830.000000	5.764440
306.690000	1180.000000	50810.000000	5.768630
307.690000	1179.000000	50080.000000	5.772819
308.690000	1178.000000	49930.000000	5.777009
309.690000	1177.000000	50320.000000	5.781198
310.690000	1176.000000	50950.000000	5.785388
311.690000	1175.000000	51320.000000	5.789577
312.690000	1174.000000	51390.000000	5.793767
313.690000	1173.000000	50560.000000	5.797956
314.690000	1172.000000	51570.000000	5.802146
315.690000	1171.000000	50780.000000	5.806335
316.690000	1170.000000	50960.000000	5.810525
317.690000	1169.000000	51690.000000	5.814715
318.690000	1168.000000	50760.000000	5.818904
319.690000	1167.000000	50020.000000	5.823094
320.690000	1166.000000	49330.000000	5.827283
321.690000	1165.000000	49790.000000	5.831473
322.690000	1164.000000	49990.000000	5.835662
323.690000	1163.000000	50020.000000	5.839852
324.690000	1162.000000	50480.000000	5.844041
325.690000	1161.000000	51070.000000	5.848231
326.690000	1160.000000	49740.000000	5.852421
327.690000	1159.000000	50190.000000	5.856610
328.690000	1158.000000	49800.000000	5.861690
329.690000	1157.000000	49620.000000	5.867871
330.690000	1156.000000	50480.000000	5.874052
331.690000	1155.000000	50440.000000	5.880232
332.690000	1154.000000	50180.000000	5.886413
333.690000	1153.000000	51040.000000	5.892594
334.690000	1152.000000	51060.000000	5.898775
335.690000	1151.000000	51550.000000	5.904956
336.690000	1150.000000	52150.000000	5.911137
337.690000	1149.000000	52530.000000	5.917318
338.690000	1148.000000	51620.000000	5.923499
339.690000	1147.000000	51230.000000	5.929680
340.690000	1146.000000	52270.000000	5.935860
341.690000	1145.000000	53200.000000	5.942041
342.690000	1144.000000	52410.000000	5.948222
343.690000	1143.000000	53200.000000	5.954403
344.690000	1142.000000	51540.000000	5.960584
345.690000	1141.000000	52360.000000	5.966765
346.690000	1140.000000	51930.000000	5.972946
347.690000	1139.000000	52690.000000	5.979127
348.690000	1138.000000	52060.000000	5.985308
349.690000	1137.000000	52310.000000	5.991488
350.690000	1136.000000	52140.000000	5.997669
351.690000	1135.000000	52780.000000	6.003850
352.690000	1134.000000	52820.000000	6.010031
353.690000	1133.000000	53220.000000	6.016212
354.690000	1132.000000	54480.000000	6.022393
355.690000	1131.000000	52770.000000	6.028574
356.690000	1130.000000	52160.000000	6.034755
357.690000	1129.000000	52110.000000	6.040936
358.690000	1128.000000	52250.000000	6.047116
359.690000	1127.000000	52670.000000	6.053297
360.690000	1126.000000	54460.000000	6.059478
361.690000	1125.000000	53230.000000	6.065659
362.690000	1124.000000	52130.000000	6.071840
363.690000	1123.000000	52580.000000	6.078021
364.690000	1122.000000	53340.000000	6.084202
365.690000	1121.000000	53280.000000	6.090383
366.690000	1120.000000	53180.000000	6.096563
367.690000	1119.000000	53610.000000	6.102744
368.690000	1118.000000	52970.000000	6.108925
369.690000	1117.000000	53540.000000	6.115106
370.690000	1116.000000	53670.000000	6.121287
371.690000	1115.000000	53720.000000	6.127468
372.690000	1114.000000	54640.000000	6.133649
373.690000	1113.000000	53960.000000	6.139830
374.690000	1112.000000	53520.000000	6.146011
375.690000	1111.000000	53780.000000	6.152191
376.690000	1110.000000	52920.000000	6.158372
377.690000	1109.000000	53230.000000	6.164553
378.690000	1108.000000	55250.000000	6.170734
379.690000	1107.000000	53950.000000	6.176915
380.690000	1106.000000	54940.000000	6.183096
381.690000	1105.000000	53990.000000	6.189277
382.690000	1104.000000	54730.000000	6.195458
383.690000	1103.000000	53930.000000	6.201639
384.690000	1102.000000	53740.000000	6.207819
385.690000	1101.000000	54650.000000	6.214000
386.690000	1100.000000	53990.000000	6.220181
387.690000	1099.000000	54470.000000	6.226362
388.690000	1098.000000	55780.000000	6.232543
389.690000	1097.000000	54920.000000	6.238724
390.690000	1096.000000	54620.000000	6.244905
391.690000	1095.000000	54050.000000	6.251086
392.690000	1094.000000	54970.000000	6.257267
393.690000	1093.000000	54460.000000	6.263447
394.690000	1092.000000	54310.000000	6.269628
395.690000	1091.000000	54550.000000	6.275809
396.690000	1090.000000	55820.000000	6.281990
397.690000	1089.000000	55760.000000	6.288171
398.690000	1088.000000	54730.000000	6.294352
399.690000	1087.000000	55490.000000	6.300533
400.690000	1086.000000	56030.000000	6.306714
401.690000	1085.000000	54750.000000	6.312895
402.690000	1084.000000	54990.000000	6.319075
403.690000	1083.000000	56100.000000	6.325256
404.690000	1082.000000	55050.000000	6.331437
405.690000	1081.000000	54870.000000	6.337618
406.690000	1080.000000	53930.000000	6.343799
407.690000	1079.000000	55140.000000	6.349980
408.690000	1078.000000	55880.000000	6.356161
409.690000	1077.000000	55080.000000	6.362342
410.690000	1076.000000	54870.000000	6.368523
411.690000	1075.000000	54400.000000	6.374703
412.690000	1074.000000	54510.000000	6.380884
413.690000	1073.000000	54050.000000	6.387065
414.690000	1072.000000	54590.000000	6.393246
415.690000	1071.000000	55100.000000	6.399427
416.690000	1070.000000	54920.000000	6.405608
417.690000	1069.000000	55190.000000	6.411789
418.690000	1068.000000	55420.000000	6.417970
419.690000	1067.000000	55330.000000	6.424151
420.690000	1066.000000	55470.000000	6.430331
421.690000	1065.000000	55250.000000	6.436512
422.690000	1064.000000	55380.000000	6.442693
423.690000	1063.000000	55850.000000	6.448874
424.690000	1062.000000	55810.000000	6.455055
425.690000	1061.000000	55480.000000	6.461236
426.690000	1060.000000	57060.000000	6.467417
427.690000	1059.000000	56760.000000	6.473598
428.690000	1058.000000	55980.000000	6.479779
429.690000	1057.000000	56870.000000	6.485959
430.690000	1056.000000	56880.000000	6.492140
431.690000	1055.000000	55900.000000	6.498321
432.690000	1054.000000	56110.000000	6.504502
433.690000	1053.000000	57120.000000	6.510683
434.690000	1052.000000	56730.000000	6.516864
435.690000	1051.000000	56360.000000	6.523045
436.690000	1050.000000	57110.000000	6.529226
437.690000	1049.000000	56510.000000	6.535407
438.690000	1048.000000	55870.000000	6.541587
439.690000	1047.000000	55430.000000	6.547768
440.690000	1046.000000	56930.000000	6.553949
441.690000	1045.000000	56730.000000	6.560130
442.690000	1044.000000	56820.000000	6.566311
443.690000	1043.000000	56710.000000	6.572492
444.690000	1042.000000	56380.000000	6.578673
445.690000	1041.000000	57090.000000	6.584854
446.690000	1040.000000	57130.000000	6.591035
447.690000	1039.000000	58790.000000	6.597215
448.690000	1038.000000	57100.000000	6.603396
449.690000	1037.000000	57650.000000	6.609577
450.690000	1036.000000	59750.000000	6.615758
451.690000	1035.000000	57420.000000	6.621939
452.690000	1034.000000	57720.000000	6.628120
453.690000	1033.000000	58100.000000	6.634301
454.690000	1032.000000	58380.000000	6.640482
455.690000	1031.000000	57070.000000	6.646663
456.690000	1030.000000	58630.000000	6.652792
457.690000	1029.000000	57780.000000	6.658895
458.690000	1028.000000	57120.000000	6.664998
459.690000	1027.000000	58010.000000	6.671101
460.690000	1026.000000	58380.000000	6.677204
461.690000	1025.000000	59520.000000	6.683308
462.690000	1024.000000	58700.000000	6.689411
463.690000	1023.000000	58830.000000	6.695514
464.690000	1022.000000	59090.000000	6.701617
465.690000	1021.000000	59170.000000	6.707720
466.690000	1020.000000	60730.000000	6.713823
467.690000	1019.000000	58290.000000	6.719926
468.690000	1018.000000	57440.000000	6.726029
469.690000	1017.000000	58930.000000	6.732132
470.690000	1016.000000	59170.000000	6.738235
471.690000	1015.000000	60220.000000	6.744339
472.690000	1014.000000	58660.000000	6.750442
473.690000	1013.000000	58630.000000	6.756545
474.690000	1012.000000	60070.000000	6.762648
475.690000	1011.000000	60440.000000	6.768751
476.690000	1010.000000	61020.000000	6.774854
477.690000	1009.000000	60420.000000	6.780957
478.690000	1008.000000	59680.000000	6.787060
479.690000	1007.000000	61420.000000	6.793163
480.690000	1006.000000	59700.000000	6.799266
481.690000	1005.000000	58560.000000	6.805370
482.690000	1004.000000	60610.000000	6.811473
483.690000	1003.000000	60110.000000	6.817576
484.690000	1002.000000	59860.000000	6.823679
485.690000	1001.000000	61850.000000	6.829782
486.690000	1000.000000	60410.000000	6.835885
487.690000	999.000000	59350.000000	6.841988
488.690000	998.000000	60430.000000	6.848091
489.690000	997.000000	61440.000000	6.854194
490.690000	996.000000	60330.000000	6.860297
491.690000	995.000000	60250.000000	6.866401
492.690000	994.000000	61260.000000	6.872504
493.690000	993.000000	60780.000000	6.878607
494.690000	992.000000	60780.000000	6.884710
495.690000	991.000000	61040.000000	6.890813
496.690000	990.000000	60920.000000	6.896916
497.690000	989.000000	62050.000000	6.903019
498.690000	988.000000	62500.000000	6.909122
499.690000	987.000000	60530.000000	6.915225
500.690000	986.000000	61520.000000	6.921328
501.690000	985.000000	62050.000000	6.927432
502.690000	984.000000	61220.000000	6.933535
503.690000	983.000000	62690.000000	6.939638
504.690000	982.000000	62740.000000	6.945741
505.690000	981.000000	62480.000000	6.951844
506.690000	980.000000	62360.000000	6.957947
507.690000	979.000000	62820.000000	6.964050
508.690000	978.000000	62900.000000	6.970153
509.690000	977.000000	63010.000000	6.976256
510.690000	976.000000	63110.000000	6.982359
511.690000	975.000000	63680.000000	6.988463
512.690000	974.000000	64600.000000	6.994566
513.690000	973.000000	63990.000000	7.000669
514.690000	972.000000	62430.000000	7.006772
515.690000	971.000000	62650.000000	7.012875
516.690000	970.000000	63450.000000	7.018978
517.690000	969.000000	62990.000000	7.025081
518.690000	968.000000	63430.000000	7.031184
519.690000	967.000000	63730.000000	7.037287
520.690000	966.000000	62500.000000	7.043390
521.690000	965.000000	63530.000000	7.049494
522.690000	964.000000	63580.000000	7.055597
523.690000	963.000000	62840.000000	7.061700
524.690000	962.000000	62950.000000	7.067803
525.690000	961.000000	63720.000000	7.073906
526.690000	960.000000	62700.000000	7.080009
527.690000	959.000000	62540.000000	7.086112
528.690000	958.000000	62680.000000	7.092215
529.690000	957.000000	63470.000000	7.098318
530.690000	956.000000	64360.000000	7.104421
531.690000	955.000000	64810.000000	7.110525
532.690000	954.000000	64510.000000	7.116628
533.690000	953.000000	64520.000000	7.122731
534.690000	952.000000	63240.000000	7.128834
535.690000	951.000000	65270.000000	7.134937
536.690000	950.000000	64290.000000	7.141040
537.690000	949.000000	64940.000000	7.147143
538.690000	948.000000	64420.000000	7.153246
539.690000	947.000000	63790.000000	7.159349
540.690000	946.000000	64450.000000	7.165452
541.690000	945.000000	64290.000000	7.171556
542.690000	944.000000	63940.000000	7.177659
543.690000	943.000000	64620.000000	7.183762
544.690000	942.000000	64780.000000	7.189865
545.690000	941.000000	63880.000000	7.195968
546.690000	940.000000	64460.000000	7.202071
547.690000	939.000000	63260.000000	7.208174
548.690000	938.000000	63180.000000	7.214277
549.690000	937.000000	64170.000000	7.220380
550.690000	936.000000	64360.000000	7.226483
551.690000	935.000000	65160.000000	7.232587
552.690000	934.000000	65210.000000	7.238690
553.690000	933.000000	67420.000000	7.244793
554.690000	932.000000	69160.000000	7.250896
555.690000	931.000000	68560.000000	7.256999
556.690000	930.000000	67520.000000	7.263102
557.690000	929.000000	65620.000000	7.269205
558.690000	928.000000	64040.000000	7.275308
559.690000	927.000000	65000.000000	7.281411
560.690000	926.000000	64570.000000	7.287514
561.690000	925.000000	64170.000000	7.293618
562.690000	924.000000	64260.000000	7.299721
563.690000	923.000000	64890.000000	7.305824
564.690000	922.000000	64440.000000	7.311927
565.690000	921.000000	64820.000000	7.318030
566.690000	920.000000	64650.000000	7.324133
567.690000	919.000000	65000.000000	7.330236
568.690000	918.000000	65040.000000	7.336339
569.690000	917.000000	65440.000000	7.342442
570.690000	916.000000	64560.000000	7.348545
571.690000	915.000000	64990.000000	7.354649
572.690000	914.000000	65030.000000	7.360752
573.690000	913.000000	65100.000000	7.366855
574.690000	912.000000	66920.000000	7.372958
575.690000	911.000000	66780.000000	7.379061
576.690000	910.000000	65820.000000	7.385164
577.690000	909.000000	65550.000000	7.391267
578.690000	908.000000	65670.000000	7.397370
579.690000	907.000000	66740.000000	7.403473
580.690000	906.000000	65790.000000	7.409576
581.690000	905.000000	64510.000000	7.415680
582.690000	904.000000	65740.000000	7.421783
583.690000	903.000000	67010.000000	7.427886
584.690000	902.000000	66110.000000	7.433989
585.690000	901.000000	66770.000000	7.440092
586.690000	900.000000	66350.000000	7.446195
587.690000	899.000000	65810.000000	7.452298
588.690000	898.000000	66570.000000	7.458401
589.690000	897.000000	67140.000000	7.464504
590.690000	896.000000	66880.000000	7.470607
591.690000	895.000000	65920.000000	7.476711
592.690000	894.000000	66270.000000	7.482814
593.690000	893.000000	65580.000000	7.488917
594.690000	892.000000	67070.000000	7.495020
595.690000	891.000000	68920.000000	7.501123
596.690000	890.000000	67570.000000	7.507226
597.690000	889.000000	67690.000000	7.513329
598.690000	888.000000	67840.000000	7.519432
599.690000	887.000000	67180.000000	7.525535
600.690000	886.000000	67510.000000	7.531639
601.690000	885.000000	67040.000000	7.537742
602.690000	884.000000	68600.000000	7.543845
603.690000	883.000000	68300.000000	7.549948
604.690000	882.000000	68080.000000	7.556051
605.690000	881.000000	68290.000000	7.562154
606.690000	880.000000	69440.000000	7.568257
607.690000	879.000000	68500.000000	7.574360
608.690000	878.000000	68740.000000	7.580463
609.690000	877.000000	67420.000000	7.586566
610.690000	876.000000	69130.000000	7.592670
611.690000	875.000000	69820.000000	7.598773
612.690000	874.000000	68660.000000	7.604876
613.690000	873.000000	67850.000000	7.610979
614.690000	872.000000	67970.000000	7.617082
615.690000	871.000000	68060.000000	7.623185
616.690000	870.000000	69220.000000	7.629288
617.690000	869.000000	69260.000000	7.635391
618.690000	868.000000	69000.000000	7.641494
619.690000	867.000000	69730.000000	7.647597
620.690000	866.000000	69430.000000	7.653701
621.690000	865.000000	69030.000000	7.659804
622.690000	864.000000	69680.000000	7.665907
623.690000	863.000000	70310.000000	7.672010
624.690000	862.000000	71380.000000	7.678113
625.690000	861.000000	70660.000000	7.684216
626.690000	860.000000	69540.000000	7.690319
627.690000	859.000000	71270.000000	7.696422
628.690000	858.000000	71900.000000	7.702525
629.690000	857.000000	71450.000000	7.708628
630.690000	856.000000	70960.000000	7.714732
631.690000	855.000000	72080.000000	7.720835
632.690000	854.000000	70420.000000	7.726938
633.690000	853.000000	70330.000000	7.733041
634.690000	852.000000	70910.000000	7.739144
635.690000	851.000000	70920.000000	7.745247
636.690000	850.000000	71000.000000	7.751350
637.690000	849.000000	70870.000000	7.757453
638.690000	848.000000	71640.000000	7.763556
639.690000	847.000000	71020.000000	7.769659
640.690000	846.000000	70870.000000	7.775763
641.690000	845.000000	71890.000000	7.781866
642.690000	844.000000	71430.000000	7.787969
643.690000	843.000000	71820.000000	7.794072
644.690000	842.000000	73050.000000	7.800175
645.690000	841.000000	72790.000000	7.806278
646.690000	840.000000	72580.000000	7.812381
647.690000	839.000000	72200.000000	7.818484
648.690000	838.000000	74720.000000	7.824587
649.690000	837.000000	74170.000000	7.830690
650.690000	836.000000	71700.000000	7.836794
651.690000	835.000000	73930.000000	7.842897
652.690000	834.000000	72480.000000	7.849000
653.690000	833.000000	71370.000000	7.855103
654.690000	832.000000	72330.000000	7.861206
655.690000	831.000000	74200.000000	7.867309
656.690000	830.000000	73680.000000	7.873412
657.690000	829.000000	72590.000000	7.879515
658.690000	828.000000	73500.000000	7.885618
659.690000	827.000000	74910.000000	7.891721
660.690000	826.000000	74610.000000	7.897825
661.690000	825.000000	74810.000000	7.903928
662.690000	824.000000	74950.000000	7.910031
663.690000	823.000000	74990.000000	7.916134
664.690000	822.000000	74380.000000	7.922237
665.690000	821.000000	74490.000000	7.926931
666.690000	820.000000	74840.000000	7.931169
667.690000	819.000000	75020.000000	7.935407
668.690000	818.000000	75320.000000	7.939645
669.690000	817.000000	75630.000000	7.943883
670.690000	816.000000	75680.000000	7.948121
671.690000	815.000000	75650.000000	7.952358
672.690000	814.000000	75400.000000	7.956596
673.690000	813.000000	74960.000000	7.960834
674.690000	812.000000	74930.000000	7.965072
675.690000	811.000000	76560.000000	7.969310
676.690000	810.000000	76700.000000	7.973548
677.690000	809.000000	75100.000000	7.977786
678.690000	808.000000	76090.000000	7.982024
679.690000	807.000000	74880.000000	7.986262
680.690000	806.000000	75470.000000	7.990500
681.690000	805.000000	77190.000000	7.994738
682.690000	804.000000	77120.000000	7.998976
683.690000	803.000000	76710.000000	8.003214
684.690000	802.000000	76830.000000	8.007451
685.690000	801.000000	76960.000000	8.011689
686.690000	800.000000	77520.000000	8.015927
687.690000	799.000000	76370.000000	8.020165
688.690000	798.000000	77590.000000	8.024403
689.690000	797.000000	78460.000000	8.028641
690.690000	796.000000	78460.000000	8.032879
691.690000	795.000000	77380.000000	8.037117
692.690000	794.000000	78350.000000	8.041355
693.690000	793.000000	78710.000000	8.045593
694.690000	792.000000	78520.000000	8.049831
695.690000	791.000000	79160.000000	8.054069
696.690000	790.000000	78170.000000	8.058307
697.690000	789.000000	78620.000000	8.062544
698.690000	788.000000	78260.000000	8.066782
699.690000	787.000000	79120.000000	8.071020
700.690000	786.000000	78800.000000	8.075258
701.690000	785.000000	80150.000000	8.079496
702.690000	784.000000	79460.000000	8.083734
703.690000	783.000000	79720.000000	8.087972
704.690000	782.000000	80620.000000	8.092210
705.690000	781.000000	79220.000000	8.096448
706.690000	780.000000	80460.000000	8.100686
707.690000	779.000000	80240.000000	8.104924
708.690000	778.000000	78790.000000	8.109162
709.690000	777.000000	80720.000000	8.113400
710.690000	776.000000	80440.000000	8.117637
711.690000	775.000000	79590.000000	8.121875
712.690000	774.000000	77870.000000	8.126113
713.690000	773.000000	79410.000000	8.130351
714.690000	772.000000	79730.000000	8.134589
715.690000	771.000000	80500.000000	8.138827
716.690000	770.000000	80210.000000	8.143065
717.690000	769.000000	80950.000000	8.147303
718.690000	768.000000	81310.000000	8.151541
719.690000	767.000000	80220.000000	8.155779
720.690000	766.000000	82450.000000	8.160017
721.690000	765.000000	84140.000000	8.164255
722.690000	764.000000	82990.000000	8.168493
723.690000	763.000000	85090.000000	8.172730
724.690000	762.000000	85650.000000	8.176968
725.690000	761.000000	85470.000000	8.181206
726.690000	760.000000	85470.000000	8.185444
727.690000	759.000000	83810.000000	8.189682
728.690000	758.000000	83800.000000	8.193920
729.690000	757.000000	83560.000000	8.198158
730.690000	756.000000	82470.000000	8.202396
731.690000	755.000000	81690.000000	8.206634
